* Sea-Bird SBE19plus Data File:
* FileName = D:\2016\Estaciones\E8001.hex
* Software Version 1.59
* Temperature SN =  6130
* Conductivity SN =  6130
* System UpLoad Time = Dec 12 2016 13:25:15
** Ship: Aldebaranaldebaran
** Longitud:5212.47
** Latitud:3510.15
** Estacion:E8
** z:
** observaciones:
* ds
* SBE 19plus V 2.5.2  SERIAL NO. 6130    12 Dec 2016 09:24:17
* vbatt = 12.6, vlith =  8.5, ioper =  61.9 ma, ipump =  43.5 ma,
* iext01 =  31.4 ma, iext2345 =  40.5 ma
* status = not logging
* number of scans to average = 1
* samples = 19696, free = 3443364, casts = 6
* mode = profile, minimum cond freq = 3128, pump delay = 60 sec
* autorun = no, ignore magnetic switch = no
* battery type = alkaline, battery cutoff =  7.5 volts
* pressure sensor = strain gauge, range = 508.0
* SBE 38 = no, WETLABS = no, OPTODE = no, SBE63 = no, Gas Tension Device = no
* Ext Volt 0 = yes, Ext Volt 1 = yes
* Ext Volt 2 = yes, Ext Volt 3 = no
* Ext Volt 4 = yes, Ext Volt 5 = no
* echo characters = yes
* output format = raw HEX

* S>
*
* SBE 19plus V 2.5.2  SERIAL NO. 6130    12 Dec 2016 09:24:23
* temperature:  22-Jul-16
*     TA0 = 1.280156e-03
*     TA1 = 2.583678e-04
*     TA2 = -1.395276e-08
*     TA3 = 1.390246e-07
*     TOFFSET = 0.000000e+00
* conductivity:  22-Jul-16
*     G = -1.023657e+00
*     H = 1.493062e-01
*     I = -5.632062e-04
*     J = 6.518213e-05
*     CPCOR = -9.570000e-08
*     CTCOR = 3.250000e-06
*     CSLOPE = 1.000000e+00
* pressure S/N = 2711888, range = 508 psia:  21-Jul-16
*     PA0 = 6.515467e-02
*     PA1 = 1.544241e-03
*     PA2 = 6.136531e-12
*     PTCA0 = 5.241084e+05
*     PTCA1 = 5.473716e+00
*     PTCA2 = -1.533652e-01
*     PTCB0 = 2.590087e+01
*     PTCB1 = 7.750000e-04
*     PTCB2 = 0.000000e+00
*     PTEMPA0 = -6.286242e+01
*     PTEMPA1 = 5.416207e+01
*     PTEMPA2 = -2.960267e-01
*     POFFSET = 0.000000e+00
* volt 0: offset = -4.602000e-02, slope = 1.252711e+00
* volt 1: offset = -4.693579e-02, slope = 1.254109e+00
* volt 2: offset = -4.649053e-02, slope = 1.252902e+00
* volt 3: offset = -4.816842e-02, slope = 1.253247e+00
* volt 4: offset = -4.683579e-02, slope = 1.252668e+00
* volt 5: offset = -4.772737e-02, slope = 1.253371e+00
*     EXTFREQSF = 9.999889e-01
* dh
* cast   1 10 Dec 2016 06:16:51 samples 1 to 3069, avg = 1, stop = mag switch

* S>
# nquan = 7
# nvalues = 3069                                  
# units = specified
# name 0 = tv290C: Temperature [ITS-90, deg C]
# name 1 = c0S/m: Conductivity [S/m]
# name 2 = prdM: Pressure, Strain Gauge [db]
# name 3 = f0: Frequency 0
# name 4 = f1: Frequency 1
# name 5 = f2: Frequency 2
# name 6 = flag:  0.000e+00
# span 0 =    18.1981,    22.0342                 
# span 1 =   0.008161,   5.064101                 
# span 2 =     -0.109,    222.886                 
# span 3 =     303657,     351667                 
# span 4 =   2637.965,   6405.652                 
# span 5 =     533536,     742921                 
# span 6 = 0.0000e+00, 0.0000e+00                 
# interval = seconds: 0.25
# start_time = Dec 10 2016 06:16:51 [Instrument's time stamp, header]
# bad_flag = -9.990e-29
# <Sensors count="7" >
#   <sensor Channel="1" >
#     <!-- Count, Temperature -->
#     <TemperatureSensor SensorID="58" >
#       <SerialNumber>6130</SerialNumber>
#       <CalibrationDate>22-Jul-16</CalibrationDate>
#       <A0>1.28015621e-003</A0>
#       <A1>2.58367774e-004</A1>
#       <A2>-1.39527596e-008</A2>
#       <A3>1.39024630e-007</A3>
#       <Slope>1.00000000</Slope>
#       <Offset>0.0000</Offset>
#     </TemperatureSensor>
#   </sensor>
#   <sensor Channel="2" >
#     <!-- Frequency 0, Conductivity -->
#     <ConductivitySensor SensorID="3" >
#       <SerialNumber>6130</SerialNumber>
#       <CalibrationDate>22-Jul-16</CalibrationDate>
#       <UseG_J>1</UseG_J>
#       <!-- Cell const and series R are applicable only for wide range sensors. -->
#       <SeriesR>0.0000</SeriesR>
#       <CellConst>2000.0000</CellConst>
#       <ConductivityType>0</ConductivityType>
#       <Coefficients equation="0" >
#         <A>0.00000000e+000</A>
#         <B>0.00000000e+000</B>
#         <C>0.00000000e+000</C>
#         <D>0.00000000e+000</D>
#         <M>0.0</M>
#         <CPcor>-9.57000000e-008</CPcor>
#       </Coefficients>
#       <Coefficients equation="1" >
#         <G>-1.02365730e+000</G>
#         <H>1.49306223e-001</H>
#         <I>-5.63206187e-004</I>
#         <J>6.51821272e-005</J>
#         <CPcor>-9.57000000e-008</CPcor>
#         <CTcor>3.2500e-006</CTcor>
#         <!-- WBOTC not applicable unless ConductivityType = 1. -->
#         <WBOTC>0.00000000e+000</WBOTC>
#       </Coefficients>
#       <Slope>1.00000000</Slope>
#       <Offset>0.00000</Offset>
#     </ConductivitySensor>
#   </sensor>
#   <sensor Channel="3" >
#     <!-- Count, Pressure, Strain Gauge -->
#     <PressureSensor SensorID="46" >
#       <SerialNumber>6130</SerialNumber>
#       <CalibrationDate>21-Jul-16</CalibrationDate>
#       <PA0>6.51546669e-002</PA0>
#       <PA1>1.54424116e-003</PA1>
#       <PA2>6.13653149e-012</PA2>
#       <PTEMPA0>-6.28624239e+001</PTEMPA0>
#       <PTEMPA1>5.41620689e+001</PTEMPA1>
#       <PTEMPA2>-2.96026659e-001</PTEMPA2>
#       <PTCA0>5.24108391e+005</PTCA0>
#       <PTCA1>5.47371611e+000</PTCA1>
#       <PTCA2>-1.53365246e-001</PTCA2>
#       <PTCB0>2.59008750e+001</PTCB0>
#       <PTCB1>7.75000000e-004</PTCB1>
#       <PTCB2>0.00000000e+000</PTCB2>
#       <Offset>0.000000</Offset>
#     </PressureSensor>
#   </sensor>
#   <sensor Channel="4" >
#     <!-- A/D voltage 0, Fluorometer, WET Labs ECO-AFL/FL -->
#     <FluoroWetlabECO_AFL_FL_Sensor SensorID="20" >
#       <SerialNumber>FLNTURT-1102</SerialNumber>
#       <CalibrationDate>22-Aug-2016</CalibrationDate>
#       <ScaleFactor>1.00000000e+001</ScaleFactor>
#       <!-- Dark output -->
#       <Vblank>0.0680</Vblank>
#     </FluoroWetlabECO_AFL_FL_Sensor>
#   </sensor>
#   <sensor Channel="5" >
#     <!-- A/D voltage 1, Turbidity Meter, WET Labs, ECO-NTU -->
#     <TurbidityMeter SensorID="67" >
#       <SerialNumber>FLNTURT-1102</SerialNumber>
#       <CalibrationDate>22-Aug-2016</CalibrationDate>
#       <ScaleFactor>5.000000</ScaleFactor>
#       <!-- Dark output -->
#       <DarkVoltage>0.059000</DarkVoltage>
#     </TurbidityMeter>
#   </sensor>
#   <sensor Channel="6" >
#     <!-- A/D voltage 2, Fluorometer, WET Labs ECO CDOM -->
#     <FluoroWetlabCDOM_Sensor SensorID="19" >
#       <SerialNumber>WSCD-1273</SerialNumber>
#       <CalibrationDate>18-Aug-2016</CalibrationDate>
#       <ScaleFactor>35.000</ScaleFactor>
#       <!-- Dark output -->
#       <Vblank>0.083</Vblank>
#     </FluoroWetlabCDOM_Sensor>
#   </sensor>
#   <sensor Channel="7" >
#     <!-- A/D voltage 3, PAR/Irradiance, Biospherical/Licor -->
#     <PAR_BiosphericalLicorChelseaSensor SensorID="42" >
#       <SerialNumber>70194</SerialNumber>
#       <CalibrationDate>26-Aug-2016</CalibrationDate>
#       <M>1.00000000</M>
#       <B>0.00000000</B>
#       <CalibrationConstant>11494000000.00000000</CalibrationConstant>
#       <Multiplier>1.00000000</Multiplier>
#       <Offset>-0.08898550</Offset>
#     </PAR_BiosphericalLicorChelseaSensor>
#   </sensor>
# </Sensors>
# datcnv_date = May 09 2017 10:39:44, 7.26.4.22 [datcnv_vars = 6]
# datcnv_in = I:\users\GIkeda\User Data\19plusV2 - Leonardo Ortega\E8001.hex I:\users\GIkeda\User Data\19plusV2 - Leonardo Ortega\SBE19plusV2_6130.xmlcon
# datcnv_skipover = 0
# file_type = ascii
*END*
    20.4459   0.008453     -0.105     322798   2638.340     533539  0.000e+00
    20.4451   0.008420     -0.106     322808   2638.297     533538  0.000e+00
    20.4436   0.008423     -0.104     322827   2638.301     533540  0.000e+00
    20.4427   0.008402     -0.107     322838   2638.273     533537  0.000e+00
    20.4413   0.008380     -0.105     322855   2638.246     533539  0.000e+00
    20.4401   0.008344     -0.104     322870   2638.199     533540  0.000e+00
    20.4390   0.008304     -0.107     322884   2638.148     533537  0.000e+00
    20.4375   0.008292     -0.106     322902   2638.133     533538  0.000e+00
    20.4360   0.008277     -0.105     322921   2638.113     533539  0.000e+00
    20.4348   0.008264     -0.106     322935   2638.098     533538  0.000e+00
    20.4337   0.008234     -0.106     322949   2638.059     533538  0.000e+00
    20.4327   0.008225     -0.106     322961   2638.047     533538  0.000e+00
    20.4316   0.008200     -0.105     322975   2638.016     533539  0.000e+00
    20.4307   0.008188     -0.102     322986   2638.000     533542  0.000e+00
    20.4298   0.008161     -0.104     322998   2637.965     533540  0.000e+00
    20.4287   0.008313     -0.102     323011   2638.160     533542  0.000e+00
    20.4271   0.008447     -0.103     323031   2638.332     533541  0.000e+00
    20.4261   0.008435     -0.103     323043   2638.316     533541  0.000e+00
    20.4250   0.008356     -0.103     323057   2638.215     533541  0.000e+00
    20.4233   0.008816     -0.102     323078   2638.805     533542  0.000e+00
    20.4224   0.009100     -0.103     323089   2639.168     533541  0.000e+00
    20.4219   0.009219     -0.102     323095   2639.320     533542  0.000e+00
    20.4213   0.009414     -0.101     323103   2639.570     533543  0.000e+00
    20.4206   0.009762     -0.102     323111   2640.016     533542  0.000e+00
    20.4197   0.009634     -0.101     323123   2639.852     533543  0.000e+00
    20.4196   0.009707     -0.102     323124   2639.945     533542  0.000e+00
    20.4188   0.009866     -0.103     323134   2640.148     533541  0.000e+00
    20.4185   0.010022     -0.102     323137   2640.348     533542  0.000e+00
    20.4179   0.010242     -0.104     323145   2640.629     533540  0.000e+00
    20.4183   0.010467     -0.102     323140   2640.918     533542  0.000e+00
    20.4186   0.010605     -0.102     323136   2641.094     533542  0.000e+00
    20.4190   0.010733     -0.100     323131   2641.258     533544  0.000e+00
    20.4193   0.010849     -0.098     323127   2641.406     533546  0.000e+00
    20.4194   0.011072     -0.101     323126   2641.691     533543  0.000e+00
    20.4199   0.011206     -0.100     323120   2641.863     533544  0.000e+00
    20.4197   0.011445     -0.101     323122   2642.168     533543  0.000e+00
    20.4189   0.011808     -0.101     323132   2642.633     533543  0.000e+00
    20.4183   0.012147     -0.101     323140   2643.066     533543  0.000e+00
    20.4181   0.012306     -0.103     323142   2643.270     533541  0.000e+00
    20.4173   0.012538     -0.100     323152   2643.566     533544  0.000e+00
    20.4158   0.012765     -0.102     323171   2643.855     533542  0.000e+00
    20.4155   0.012902     -0.103     323174   2644.031     533541  0.000e+00
    20.4151   0.012862     -0.102     323179   2643.980     533542  0.000e+00
    20.4143   0.012896     -0.100     323189   2644.023     533544  0.000e+00
    20.4142   0.012731     -0.100     323191   2643.813     533544  0.000e+00
    20.4138   0.012566     -0.101     323195   2643.602     533543  0.000e+00
    20.4141   0.012358     -0.101     323192   2643.336     533543  0.000e+00
    20.4137   0.012153     -0.100     323197   2643.074     533544  0.000e+00
    20.4135   0.011958     -0.101     323199   2642.824     533543  0.000e+00
    20.4125   0.011778     -0.100     323212   2642.594     533544  0.000e+00
    20.4124   0.011597     -0.101     323213   2642.363     533543  0.000e+00
    20.4114   0.011490     -0.101     323225   2642.227     533543  0.000e+00
    20.4100   0.011316     -0.104     323243   2642.004     533540  0.000e+00
    20.4095   0.011182     -0.103     323249   2641.832     533541  0.000e+00
    20.4090   0.011038     -0.104     323255   2641.648     533540  0.000e+00
    20.4078   0.010928     -0.104     323270   2641.508     533540  0.000e+00
    20.4072   0.010812     -0.104     323277   2641.359     533540  0.000e+00
    20.4065   0.011005     -0.103     323286   2641.605     533541  0.000e+00
    20.4061   0.011167     -0.103     323291   2641.813     533541  0.000e+00
    20.4051   0.010965     -0.103     323303   2641.555     533541  0.000e+00
    20.4038   0.010696     -0.101     323320   2641.211     533543  0.000e+00
    20.4028   0.010599     -0.105     323332   2641.086     533539  0.000e+00
    20.4017   0.010550     -0.102     323346   2641.023     533542  0.000e+00
    20.3996   0.010599     -0.100     323371   2641.086     533544  0.000e+00
    20.3988   0.010565     -0.097     323381   2641.043     533547  0.000e+00
    20.3979   0.010431     -0.098     323393   2640.871     533546  0.000e+00
    20.3965   0.010351     -0.099     323410   2640.770     533545  0.000e+00
    20.3951   0.010409     -0.098     323427   2640.844     533546  0.000e+00
    20.3954   0.010358     -0.098     323424   2640.777     533546  0.000e+00
    20.3949   0.010257      0.008     323430   2640.648     533645  0.000e+00
    20.3942   0.010229      0.324     323439   2640.613     533942  0.000e+00
    20.3932   0.010150      0.556     323451   2640.512     534160  0.000e+00
    20.3927   0.010077      0.765     323457   2640.418     534357  0.000e+00
    20.3921   0.010028      0.943     323464   2640.355     534524  0.000e+00
    20.3914   0.010003      1.085     323473   2640.324     534657  0.000e+00
    20.3898   0.009958      1.223     323493   2640.266     534787  0.000e+00
    20.3888   0.009942      1.391     323506   2640.246     534945  0.000e+00
    20.3883   0.009918      1.622     323512   2640.215     535162  0.000e+00
    20.3871   0.009887      1.899     323526   2640.176     535422  0.000e+00
    20.3869   0.010287      2.174     323529   2640.688     535681  0.000e+00
    20.3867   0.010345      2.315     323531   2640.762     535813  0.000e+00
    20.3868   0.010226      2.364     323530   2640.609     535859  0.000e+00
    20.3867   0.010010      2.433     323532   2640.332     535924  0.000e+00
    20.3860   0.010000      2.482     323540   2640.320     535970  0.000e+00
    20.3850   0.009976      2.480     323552   2640.289     535968  0.000e+00
    20.3850   0.009854      2.434     323553   2640.133     535925  0.000e+00
    20.3841   0.010358      2.367     323564   2640.777     535862  0.000e+00
    20.3821   0.096053      2.271     323589   2748.246     535772  0.000e+00
    20.3805   0.134922      2.135     323608   2795.633     535644  0.000e+00
    20.3793   0.253420      1.986     323623   2935.391     535504  0.000e+00
    20.3775   0.305059      1.826     323645   2994.258     535354  0.000e+00
    20.3757   0.281265      1.670     323668   2967.277     535207  0.000e+00
    20.3750   0.311195      1.574     323677   3001.176     535117  0.000e+00
    20.3750   0.334697      1.563     323677   3027.527     535107  0.000e+00
    20.3775   0.280407      1.623     323645   2966.301     535163  0.000e+00
    20.3811   0.307047      1.720     323601   2996.500     535254  0.000e+00
    20.3854   0.342511      1.826     323548   3036.238     535354  0.000e+00
    20.3905   0.408477      1.922     323484   3108.805     535444  0.000e+00
    20.3961   0.422300      1.993     323415   3123.797     535511  0.000e+00
    20.4021   0.363837      2.052     323340   3059.887     535566  0.000e+00
    20.4092   0.306430      2.090     323252   2995.805     535602  0.000e+00
    20.4170   0.466819      2.103     323156   3171.602     535614  0.000e+00
    20.4248   0.607242      2.097     323060   3317.879     535608  0.000e+00
    20.4312   0.493963      2.072     322980   3200.398     535585  0.000e+00
    20.4392   0.584019      2.035     322881   3294.137     535550  0.000e+00
    20.4476   0.524496      1.998     322777   3232.484     535515  0.000e+00
    20.4555   0.459237      1.964     322680   3163.512     535483  0.000e+00
    20.4631   0.560314      1.930     322585   3269.723     535451  0.000e+00
    20.4706   0.584506      1.902     322493   3294.637     535425  0.000e+00
    20.4778   0.535210      1.885     322404   3243.668     535409  0.000e+00
    20.4854   0.477629      1.902     322310   3183.102     535425  0.000e+00
    20.4923   0.417394      1.941     322224   3118.484     535462  0.000e+00
    20.4991   0.425124      2.009     322140   3126.852     535526  0.000e+00
    20.5054   0.525426      2.103     322063   3233.457     535614  0.000e+00
    20.5120   0.464972      2.224     321981   3169.633     535728  0.000e+00
    20.5321   0.510756      2.337     321733   3218.086     535834  0.000e+00
    20.5828   0.517793      2.419     321108   3225.469     535911  0.000e+00
    20.6461   0.514965      2.436     320329   3222.504     535927  0.000e+00
    20.7098   0.448307      2.400     319547   3151.813     535893  0.000e+00
    20.7598   0.412644      2.316     318935   3113.332     535814  0.000e+00
    20.7920   0.456788      2.192     318540   3160.895     535698  0.000e+00
    20.8173   0.505290      2.033     318231   3212.340     535548  0.000e+00
    20.8386   0.437959      1.839     317971   3140.695     535366  0.000e+00
    20.8562   0.477846      1.661     317756   3183.332     535199  0.000e+00
    20.8688   0.409253      1.580     317602   3109.648     535123  0.000e+00
    20.8780   0.403207      1.623     317490   3103.070     535163  0.000e+00
    20.8911   0.475121      1.740     317330   3180.438     535273  0.000e+00
    20.9060   0.411791      1.886     317148   3112.406     535410  0.000e+00
    20.9254   0.436739      2.044     316912   3139.383     535559  0.000e+00
    20.9465   0.365514      2.197     316655   3061.738     535702  0.000e+00
    20.9680   0.328514      2.297     316394   3020.617     535796  0.000e+00
    20.9892   0.425651      2.365     316136   3127.422     535860  0.000e+00
    21.0027   0.463356      2.412     315972   3167.910     535904  0.000e+00
    21.0081   0.458177      2.416     315907   3162.379     535908  0.000e+00
    21.0113   0.472314      2.381     315868   3177.453     535875  0.000e+00
    21.0106   0.519538      2.315     315876   3227.297     535813  0.000e+00
    21.0070   0.479685      2.231     315920   3185.285     535734  0.000e+00
    21.0028   0.516242      2.151     315971   3223.844     535659  0.000e+00
    21.0030   0.456174      2.068     315969   3160.238     535581  0.000e+00
    21.0085   0.514242      1.981     315902   3221.746     535499  0.000e+00
    21.0164   0.499700      1.894     315806   3206.453     535418  0.000e+00
    21.0248   0.475878      1.837     315704   3181.242     535364  0.000e+00
    21.0321   0.432371      1.806     315615   3134.676     535335  0.000e+00
    21.0351   0.423476      1.786     315579   3125.070     535316  0.000e+00
    21.0361   0.461175      1.775     315567   3165.582     535306  0.000e+00
    21.0370   0.390490      1.819     315556   3089.188     535347  0.000e+00
    21.0380   0.472046      1.933     315543   3177.168     535454  0.000e+00
    21.0401   0.424180      2.084     315518   3125.832     535596  0.000e+00
    21.0427   0.378591      2.208     315486   3076.141     535713  0.000e+00
    21.0462   0.380009      2.281     315444   3077.699     535781  0.000e+00
    21.0487   0.400769      2.306     315414   3100.414     535805  0.000e+00
    21.0496   0.412848      2.292     315403   3113.555     535792  0.000e+00
    21.0495   0.398624      2.246     315404   3098.074     535748  0.000e+00
    21.0503   0.442139      2.165     315394   3145.191     535672  0.000e+00
    21.0531   0.434730      2.049     315361   3137.219     535563  0.000e+00
    21.0579   0.448864      1.916     315302   3152.410     535438  0.000e+00
    21.0642   0.465385      1.793     315226   3170.074     535323  0.000e+00
    21.0697   0.465187      1.707     315159   3169.863     535242  0.000e+00
    21.0747   0.434639      1.674     315099   3137.121     535211  0.000e+00
    21.0800   0.410496      1.703     315035   3111.000     535238  0.000e+00
